FP2 - F4,F4 - C4,C4 - P4,P4 - O2,FP2 - F8,F8 - T4,T4 - T6,T6 - O2,FP1 - F3,F3 - C3,C3 - P3,P3 - O1,FP1 - F7,F7 - T3,T3 - T5,T5 - O1
,,,,,,,,,,,,,,,
500.0,148.0,-817.0,164.0,-248.0,456.0,-153.0,-59.0,-72.0,-3846.0,3466.0,28.0,-224.0,-2814.0,2739.0,-125.0
467.0,84.0,-714.0,115.0,-238.0,409.0,-202.0,-16.0,-51.0,-3765.0,3422.0,71.0,-166.0,-2757.0,2625.0,-24.0
411.0,-3.0,-577.0,4.0,-198.0,353.0,-233.0,-87.0,66.0,-3560.0,3175.0,179.0,-59.0,-2687.0,2496.0,110.0
332.0,-76.0,-440.0,-168.0,-148.0,306.0,-269.0,-242.0,243.0,-3276.0,2818.0,297.0,81.0,-2605.0,2361.0,243.0
235.0,-107.0,-323.0,-366.0,-102.0,272.0,-327.0,-405.0,431.0,-3001.0,2506.0,365.0,229.0,-2515.0,2220.0,367.0
128.0,-86.0,-235.0,-546.0,-65.0,245.0,-399.0,-520.0,594.0,-2782.0,2315.0,362.0,363.0,-2432.0,2091.0,467.0
35.0,-33.0,-182.0,-652.0,-39.0,208.0,-453.0,-548.0,692.0,-2629.0,2229.0,302.0,447.0,-2367.0,1992.0,522.0
-24.0,22.0,-171.0,-646.0,-36.0,156.0,-459.0,-479.0,707.0,-2550.0,2201.0,225.0,444.0,-2309.0,1910.0,538.0
-47.0,51.0,-181.0,-554.0,53.0,0.0,-431.0,-353.0,652.0,-2525.0,2187.0,170.0,363.0,-2240.0,1819.0,542.0
-44.0,39.0,-147.0,-463.0,490.0,-459.0,-401.0,-245.0,556.0,-2491.0,2140.0,152.0,267.0,-2166.0,1722.0,534.0
-9.0,-12.0,-15.0,-446.0,1211.0,-1103.0,-383.0,-208.0,447.0,-2386.0,2035.0,158.0,218.0,-2109.0,1652.0,492.0
59.0,-75.0,193.0,-505.0,1719.0,-1444.0,-370.0,-232.0,353.0,-2205.0,1887.0,167.0,237.0,-2072.0,1613.0,424.0
136.0,-123.0,424.0,-601.0,1782.0,-1313.0,-363.0,-270.0,301.0,-1980.0,1714.0,180.0,314.0,-2045.0,1570.0,375.0
181.0,-150.0,646.0,-711.0,1507.0,-887.0,-361.0,-294.0,306.0,-1761.0,1526.0,220.0,419.0,-2022.0,1507.0,388.0
179.0,-171.0,832.0,-817.0,956.0,-272.0,-350.0,-310.0,361.0,-1621.0,1351.0,313.0,499.0,-1992.0,1425.0,473.0
144.0,-78.0,831.0,-883.0,311.0,340.0,-320.0,-317.0,438.0,-1612.0,1229.0,449.0,497.0,-1934.0,1336.0,606.0
97.0,390.0,370.0,-873.0,-57.0,614.0,-280.0,-293.0,501.0,-1713.0,1179.0,586.0,401.0,-1842.0,1260.0,733.0
58.0,1156.0,-457.0,-784.0,-14.0,459.0,-249.0,-223.0,501.0,-1841.0,1207.0,671.0,262.0,-1742.0,1218.0,800.0
32.0,1706.0,-1109.0,-650.0,175.0,171.0,-243.0,-124.0,424.0,-1938.0,1330.0,664.0,141.0,-1668.0,1223.0,784.0
17.0,1799.0,-1328.0,-507.0,201.0,79.0,-266.0,-34.0,311.0,-2004.0,1538.0,568.0,78.0,-1636.0,1263.0,708.0
26.0,1539.0,-1208.0,-380.0,48.0,200.0,-311.0,40.0,198.0,-2038.0,1771.0,436.0,74.0,-1626.0,1295.0,624.0
50.0,975.0,-761.0,-292.0,-90.0,331.0,-367.0,97.0,93.0,-2032.0,1960.0,317.0,96.0,-1612.0,1291.0,563.0
57.0,253.0,-111.0,-249.0,-93.0,336.0,-410.0,117.0,31.0,-2001.0,2064.0,233.0,127.0,-1592.0,1272.0,520.0
60.0,-257.0,362.0,-228.0,-8.0,251.0,-411.0,104.0,23.0,-1946.0,2059.0,197.0,157.0,-1571.0,1256.0,491.0
71.0,-328.0,432.0,-220.0,42.0,194.0,-379.0,97.0,25.0,-1875.0,1976.0,198.0,156.0,-1531.0,1226.0,474.0
70.0,-134.0,266.0,-228.0,8.0,221.0,-361.0,106.0,15.0,-1822.0,1896.0,198.0,123.0,-1474.0,1181.0,458.0
57.0,-17.0,173.0,-239.0,-47.0,276.0,-368.0,113.0,6.0,-1792.0,1857.0,184.0,97.0,-1425.0,1140.0,444.0
49.0,-82.0,240.0,-243.0,-61.0,294.0,-379.0,112.0,2.0,-1758.0,1828.0,174.0,93.0,-1391.0,1109.0,436.0
49.0,-171.0,326.0,-244.0,-42.0,274.0,-377.0,105.0,7.0,-1715.0,1781.0,173.0,95.0,-1362.0,1084.0,430.0
50.0,-162.0,305.0,-236.0,-21.0,246.0,-361.0,93.0,24.0,-1676.0,1726.0,175.0,99.0,-1336.0,1065.0,420.0
55.0,-99.0,218.0,-218.0,-9.0,225.0,-340.0,81.0,44.0,-1641.0,1679.0,174.0,112.0,-1316.0,1053.0,408.0
61.0,-78.0,171.0,-198.0,-10.0,218.0,-325.0,74.0,52.0,-1602.0,1644.0,171.0,128.0,-1298.0,1037.0,397.0
66.0,-114.0,190.0,-188.0,-26.0,226.0,-316.0,69.0,46.0,-1556.0,1602.0,169.0,129.0,-1271.0,1014.0,389.0
76.0,-160.0,208.0,-182.0,-53.0,229.0,-290.0,56.0,42.0,-1507.0,1520.0,173.0,94.0,-1225.0,991.0,369.0
102.0,-190.0,168.0,-155.0,-74.0,202.0,-229.0,26.0,49.0,-1458.0,1380.0,186.0,13.0,-1164.0,984.0,324.0
138.0,-205.0,81.0,-100.0,-85.0,154.0,-143.0,-10.0,52.0,-1408.0,1213.0,198.0,-95.0,-1104.0,1004.0,250.0
164.0,-202.0,-13.0,-34.0,-104.0,126.0,-72.0,-35.0,37.0,-1355.0,1064.0,199.0,-199.0,-1063.0,1045.0,161.0
166.0,-174.0,-95.0,15.0,-151.0,142.0,-43.0,-38.0,14.0,-1311.0,965.0,185.0,-270.0,-1043.0,1093.0,73.0
140.0,-130.0,-150.0,32.0,-203.0,175.0,-53.0,-26.0,6.0,-1298.0,930.0,163.0,-293.0,-1041.0,1128.0,7.0
93.0,-92.0,-157.0,27.0,-219.0,172.0,-79.0,-3.0,27.0,-1331.0,956.0,144.0,-270.0,-1048.0,1137.0,-24.0
34.0,-78.0,-124.0,11.0,-207.0,121.0,-90.0,20.0,68.0,-1394.0,1011.0,136.0,-231.0,-1045.0,1117.0,-21.0
-8.0,-89.0,-86.0,-8.0,-211.0,65.0,-69.0,26.0,115.0,-1445.0,1034.0,144.0,-213.0,-1013.0,1067.0,7.0
-3.0,-120.0,-71.0,-19.0,-239.0,45.0,-20.0,2.0,146.0,-1445.0,990.0,166.0,-232.0,-955.0,999.0,44.0
41.0,-158.0,-72.0,-10.0,-253.0,54.0,29.0,-29.0,135.0,-1384.0,907.0,183.0,-276.0,-894.0,944.0,66.0
91.0,-184.0,-73.0,17.0,-222.0,68.0,42.0,-37.0,80.0,-1275.0,833.0,178.0,-310.0,-854.0,923.0,57.0
117.0,-177.0,-79.0,39.0,-166.0,81.0,6.0,-21.0,15.0,-1149.0,785.0,154.0,-302.0,-848.0,931.0,24.0
114.0,-127.0,-105.0,41.0,-132.0,102.0,-50.0,1.0,-15.0,-1066.0,768.0,128.0,-253.0,-867.0,948.0,-13.0
79.0,-59.0,-136.0,25.0,-144.0,124.0,-87.0,17.0,2.0,-1071.0,794.0,109.0,-198.0,-891.0,958.0,-35.0
23.0,-23.0,-134.0,4.0,-189.0,122.0,-89.0,26.0,45.0,-1147.0,854.0,99.0,-167.0,-891.0,944.0,-34.0
-19.0,-58.0,-84.0,-17.0,-223.0,87.0,-61.0,20.0,91.0,-1217.0,890.0,101.0,-168.0,-850.0,894.0,-12.0
-13.0,-142.0,-17.0,-30.0,-218.0,35.0,-13.0,-7.0,118.0,-1217.0,850.0,118.0,-195.0,-780.0,820.0,22.0
31.0,-206.0,14.0,-23.0,-188.0,3.0,38.0,-36.0,105.0,-1147.0,757.0,137.0,-239.0,-714.0,762.0,44.0
78.0,-202.0,-11.0,4.0,-164.0,20.0,56.0,-44.0,53.0,-1040.0,674.0,140.0,-274.0,-681.0,745.0,38.0
104.0,-150.0,-67.0,30.0,-155.0,78.0,22.0,-29.0,-7.0,-933.0,632.0,123.0,-271.0,-686.0,765.0,7.0
103.0,-99.0,-105.0,37.0,-148.0,128.0,-40.0,-5.0,-34.0,-866.0,629.0,96.0,-223.0,-719.0,797.0,-31.0
74.0,-71.0,-103.0,28.0,-136.0,131.0,-88.0,21.0,-15.0,-876.0,664.0,73.0,-162.0,-752.0,818.0,-57.0
24.0,-60.0,-75.0,12.0,-142.0,95.0,-97.0,45.0,32.0,-948.0,720.0,63.0,-125.0,-757.0,808.0,-59.0
-13.0,-72.0,-43.0,-9.0,-172.0,54.0,-69.0,50.0,78.0,-1018.0,752.0,69.0,-123.0,-720.0,758.0,-33.0
-3.0,-117.0,-14.0,-27.0,-196.0,26.0,-17.0,26.0,104.0,-1025.0,717.0,89.0,-146.0,-656.0,682.0,6.0
40.0,-177.0,13.0,-24.0,-183.0,8.0,37.0,-9.0,93.0,-964.0,636.0,113.0,-186.0,-594.0,621.0,35.0
79.0,-201.0,14.0,4.0,-143.0,8.0,58.0,-26.0,44.0,-865.0,558.0,124.0,-221.0,-561.0,605.0,37.0
92.0,-159.0,-30.0,37.0,-108.0,38.0,24.0,-14.0,-13.0,-763.0,515.0,115.0,-222.0,-566.0,629.0,13.0
83.0,-74.0,-99.0,51.0,-96.0,88.0,-44.0,13.0,-40.0,-703.0,514.0,92.0,-181.0,-599.0,664.0,-20.0
51.0,-2.0,-138.0,42.0,-104.0,115.0,-99.0,41.0,-24.0,-719.0,558.0,67.0,-127.0,-632.0,683.0,-43.0
3.0,16.0,-113.0,15.0,-117.0,93.0,-113.0,58.0,17.0,-793.0,628.0,49.0,-88.0,-634.0,670.0,-46.0
-30.0,-14.0,-38.0,-44.0,-101.0,32.0,-94.0,36.0,58.0,-861.0,694.0,44.0,-61.0,-597.0,611.0,-17.0
-24.0,-47.0,48.0,-148.0,-25.0,-36.0,-68.0,-45.0,81.0,-875.0,735.0,51.0,-28.0,-537.0,512.0,44.0
-1.0,-38.0,107.0,-274.0,90.0,-77.0,-56.0,-163.0,83.0,-843.0,762.0,57.0,19.0,-479.0,402.0,117.0
13.0,18.0,129.0,-380.0,196.0,-71.0,-73.0,-271.0,67.0,-782.0,795.0,48.0,78.0,-437.0,306.0,181.0
23.0,84.0,124.0,-442.0,262.0,-23.0,-120.0,-330.0,45.0,-698.0,821.0,28.0,152.0,-409.0,222.0,233.0
39.0,118.0,105.0,-452.0,277.0,43.0,-179.0,-330.0,34.0,-615.0,826.0,7.0,230.0,-396.0,147.0,271.0
61.0,106.0,78.0,-406.0,241.0,100.0,-222.0,-280.0,44.0,-566.0,820.0,-9.0,301.0,-399.0,93.0,294.0
83.0,53.0,51.0,-329.0,171.0,136.0,-242.0,-209.0,53.0,-545.0,808.0,-9.0,345.0,-404.0,62.0,305.0
90.0,-42.0,68.0,-293.0,86.0,170.0,-256.0,-177.0,31.0,-506.0,749.0,24.0,332.0,-381.0,56.0,292.0
54.0,-161.0,169.0,-367.0,-10.0,232.0,-286.0,-242.0,-28.0,-412.0,602.0,80.0,253.0,-313.0,79.0,223.0
-48.0,-260.0,339.0,-542.0,-117.0,329.0,-325.0,-399.0,-87.0,-275.0,385.0,132.0,144.0,-213.0,126.0,99.0
-205.0,-312.0,529.0,-740.0,-231.0,436.0,-356.0,-578.0,-107.0,-138.0,157.0,167.0,34.0,-99.0,176.0,-33.0
-373.0,-331.0,704.0,-887.0,-325.0,520.0,-376.0,-706.0,-79.0,-34.0,-42.0,185.0,-61.0,15.0,209.0,-134.0
-495.0,-326.0,830.0,-949.0,-356.0,550.0,-387.0,-746.0,-8.0,13.0,-174.0,167.0,-118.0,98.0,226.0,-207.0
-541.0,-288.0,869.0,-914.0,-306.0,517.0,-389.0,-697.0,98.0,-6.0,-211.0,102.0,-108.0,115.0,246.0,-271.0
-511.0,-232.0,815.0,-798.0,-197.0,427.0,-369.0,-588.0,198.0,-70.0,-165.0,7.0,-47.0,71.0,275.0,-329.0
-420.0,-192.0,703.0,-645.0,-63.0,295.0,-317.0,-469.0,248.0,-152.0,-51.0,-91.0,19.0,1.0,304.0,-370.0
-296.0,-174.0,563.0,-501.0,75.0,142.0,-238.0,-387.0,240.0,-246.0,135.0,-175.0,80.0,-80.0,327.0,-372.0
-182.0,-145.0,397.0,-377.0,190.0,1.0,-151.0,-346.0,205.0,-350.0,379.0,-237.0,143.0,-166.0,338.0,-317.0
-97.0,-81.0,201.0,-248.0,260.0,-98.0,-71.0,-317.0,166.0,-455.0,637.0,-270.0,191.0,-249.0,333.0,-197.0
-30.0,-9.0,6.0,-107.0,282.0,-142.0,-6.0,-273.0,120.0,-531.0,837.0,-264.0,199.0,-316.0,312.0,-34.0
23.0,53.0,-144.0,11.0,258.0,-126.0,29.0,-216.0,66.0,-548.0,915.0,-229.0,167.0,-352.0,282.0,108.0
44.0,119.0,-241.0,78.0,192.0,-59.0,32.0,-165.0,19.0,-502.0,867.0,-191.0,125.0,-356.0,248.0,177.0
43.0,184.0,-300.0,100.0,103.0,29.0,24.0,-129.0,-17.0,-408.0,740.0,-162.0,102.0,-339.0,206.0,185.0
54.0,201.0,-295.0,78.0,8.0,128.0,14.0,-112.0,-61.0,-280.0,568.0,-127.0,103.0,-314.0,151.0,160.0
94.0,141.0,-191.0,-10.0,-80.0,253.0,-10.0,-129.0,-118.0,-127.0,366.0,-87.0,124.0,-290.0,93.0,108.0
140.0,41.0,-11.0,-152.0,-137.0,386.0,-58.0,-173.0,-170.0,32.0,152.0,-55.0,151.0,-267.0,39.0,37.0
166.0,-54.0,183.0,-295.0,-144.0,490.0,-128.0,-218.0,-199.0,177.0,-55.0,-29.0,169.0,-256.0,2.0,-22.0
172.0,-144.0,359.0,-395.0,-104.0,543.0,-208.0,-239.0,-202.0,296.0,-248.0,15.0,172.0,-265.0,-8.0,-38.0
160.0,-228.0,506.0,-445.0,-31.0,524.0,-269.0,-230.0,-173.0,376.0,-407.0,76.0,159.0,-285.0,8.0,-10.0
122.0,-290.0,614.0,-454.0,45.0,438.0,-289.0,-202.0,-96.0,390.0,-503.0,133.0,133.0,-298.0,48.0,41.0
63.0,-333.0,679.0,-426.0,92.0,321.0,-267.0,-165.0,16.0,337.0,-521.0,171.0,106.0,-301.0,115.0,81.0
20.0,-366.0,697.0,-371.0,104.0,220.0,-219.0,-124.0,117.0,228.0,-448.0,190.0,94.0,-305.0,196.0,103.0
23.0,-375.0,656.0,-307.0,99.0,150.0,-167.0,-85.0,177.0,81.0,-268.0,190.0,109.0,-312.0,253.0,131.0
52.0,-339.0,550.0,-243.0,94.0,92.0,-117.0,-50.0,210.0,-91.0,-5.0,172.0,151.0,-308.0,250.0,194.0
74.0,-256.0,393.0,-169.0,93.0,27.0,-67.0,-12.0,236.0,-274.0,297.0,146.0,202.0,-287.0,192.0,299.0
81.0,-155.0,222.0,-75.0,100.0,-39.0,-21.0,33.0,243.0,-432.0,578.0,126.0,236.0,-268.0,118.0,427.0
81.0,-75.0,92.0,16.0,107.0,-84.0,18.0,75.0,205.0,-515.0,755.0,108.0,228.0,-262.0,65.0,521.0
73.0,-27.0,22.0,82.0,99.0,-89.0,49.0,92.0,132.0,-505.0,790.0,78.0,174.0,-261.0,44.0,537.0
56.0,3.0,-20.0,124.0,79.0,-61.0,70.0,76.0,49.0,-429.0,722.0,29.0,102.0,-251.0,47.0,473.0
41.0,19.0,-60.0,137.0,68.0,-27.0,67.0,29.0,-21.0,-333.0,623.0,-33.0,50.0,-240.0,69.0,355.0
36.0,19.0,-91.0,94.0,86.0,-16.0,37.0,-49.0,-47.0,-259.0,540.0,-105.0,44.0,-236.0,111.0,209.0
34.0,17.0,-101.0,-11.0,134.0,-39.0,-6.0,-150.0,-8.0,-230.0,490.0,-177.0,79.0,-229.0,158.0,66.0
19.0,28.0,-87.0,-141.0,183.0,-77.0,-42.0,-245.0,78.0,-242.0,467.0,-233.0,124.0,-216.0,200.0,-38.0
-8.0,42.0,-61.0,-237.0,201.0,-104.0,-63.0,-298.0,158.0,-266.0,458.0,-260.0,146.0,-212.0,237.0,-81.0
-24.0,45.0,-41.0,-256.0,184.0,-109.0,-63.0,-288.0,191.0,-279.0,448.0,-252.0,128.0,-223.0,259.0,-55.0
-21.0,38.0,-45.0,-191.0,136.0,-93.0,-41.0,-220.0,176.0,-277.0,435.0,-218.0,73.0,-233.0,254.0,21.0
-13.0,18.0,-66.0,-77.0,58.0,-61.0,-7.0,-127.0,150.0,-270.0,403.0,-178.0,3.0,-220.0,223.0,100.0
-2.0,-32.0,-82.0,20.0,-39.0,-36.0,38.0,-60.0,140.0,-255.0,330.0,-148.0,-61.0,-185.0,186.0,128.0
20.0,-100.0,-91.0,53.0,-121.0,-48.0,100.0,-50.0,144.0,-235.0,217.0,-132.0,-115.0,-139.0,158.0,91.0
44.0,-137.0,-118.0,38.0,-167.0,-94.0,172.0,-83.0,148.0,-225.0,110.0,-122.0,-162.0,-98.0,142.0,29.0
49.0,-114.0,-175.0,22.0,-190.0,-140.0,231.0,-120.0,144.0,-241.0,56.0,-101.0,-198.0,-78.0,138.0,-5.0
38.0,-54.0,-244.0,23.0,-208.0,-155.0,261.0,-136.0,129.0,-277.0,61.0,-59.0,-214.0,-92.0,153.0,7.0
20.0,6.0,-285.0,31.0,-228.0,-135.0,260.0,-126.0,106.0,-320.0,104.0,-7.0,-218.0,-130.0,183.0,48.0
-12.0,64.0,-287.0,32.0,-257.0,-89.0,232.0,-89.0,86.0,-370.0,163.0,36.0,-224.0,-161.0,216.0,85.0
-57.0,114.0,-265.0,33.0,-299.0,-25.0,183.0,-33.0,73.0,-417.0,211.0,67.0,-226.0,-172.0,233.0,100.0
-77.0,120.0,-226.0,57.0,-344.0,50.0,130.0,37.0,60.0,-413.0,191.0,91.0,-209.0,-169.0,217.0,89.0
-39.0,54.0,-166.0,119.0,-365.0,123.0,89.0,122.0,45.0,-320.0,61.0,117.0,-163.0,-160.0,169.0,58.0
38.0,-46.0,-85.0,209.0,-341.0,169.0,67.0,220.0,38.0,-160.0,-144.0,151.0,-93.0,-157.0,112.0,25.0
99.0,-109.0,-9.0,291.0,-271.0,179.0,50.0,314.0,53.0,9.0,-357.0,200.0,-8.0,-167.0,74.0,6.0
115.0,-97.0,53.0,319.0,-164.0,154.0,25.0,376.0,81.0,142.0,-533.0,260.0,74.0,-189.0,61.0,4.0
92.0,-37.0,121.0,265.0,-32.0,80.0,6.0,387.0,114.0,195.0,-630.0,320.0,127.0,-208.0,59.0,20.0
44.0,10.0,215.0,148.0,95.0,-39.0,8.0,353.0,147.0,134.0,-619.0,366.0,134.0,-211.0,58.0,46.0
-13.0,-3.0,323.0,25.0,157.0,-144.0,24.0,294.0,180.0,-20.0,-513.0,384.0,103.0,-191.0,54.0,64.0
-51.0,-82.0,396.0,-71.0,128.0,-168.0,30.0,202.0,211.0,-171.0,-378.0,359.0,82.0,-160.0,52.0,47.0
-45.0,-186.0,383.0,-140.0,46.0,-118.0,22.0,62.0,251.0,-238.0,-269.0,288.0,113.0,-136.0,62.0,-4.0
-20.0,-244.0,266.0,-181.0,-35.0,-66.0,17.0,-96.0,312.0,-228.0,-179.0,189.0,188.0,-120.0,78.0,-52.0
-27.0,-194.0,58.0,-177.0,-86.0,-59.0,18.0,-213.0,380.0,-195.0,-79.0,89.0,269.0,-114.0,88.0,-48.0
-73.0,-50.0,-191.0,-126.0,-104.0,-89.0,9.0,-255.0,417.0,-157.0,31.0,5.0,325.0,-127.0,87.0,11.0
-116.0,102.0,-394.0,-49.0,-101.0,-125.0,-19.0,-212.0,399.0,-126.0,128.0,-65.0,332.0,-153.0,72.0,84.0
-125.0,183.0,-490.0,32.0,-102.0,-137.0,-57.0,-104.0,334.0,-121.0,197.0,-131.0,280.0,-163.0,37.0,125.0
-100.0,175.0,-481.0,94.0,-14.0,-216.0,-100.0,19.0,252.0,-139.0,233.0,-199.0,203.0,-145.0,-22.0,111.0
-52.0,104.0,-379.0,96.0,417.0,-601.0,-136.0,89.0,175.0,-126.0,215.0,-262.0,161.0,-117.0,-83.0,41.0
13.0,4.0,-183.0,11.0,1133.0,-1216.0,-143.0,72.0,119.0,-37.0,126.0,-294.0,190.0,-103.0,-123.0,-50.0
70.0,-85.0,83.0,-128.0,1643.0,-1597.0,-106.0,0.0,98.0,102.0,-16.0,-265.0,266.0,-103.0,-155.0,-90.0
87.0,-133.0,363.0,-258.0,1722.0,-1549.0,-48.0,-65.0,108.0,240.0,-177.0,-163.0,347.0,-114.0,-188.0,-36.0
71.0,-138.0,603.0,-348.0,1487.0,-1201.0,-6.0,-91.0,125.0,353.0,-329.0,-11.0,402.0,-144.0,-206.0,86.0
56.0,-129.0,757.0,-396.0,985.0,-619.0,5.0,-84.0,136.0,412.0,-442.0,150.0,411.0,-179.0,-199.0,224.0
53.0,-10.0,689.0,-403.0,365.0,23.0,-4.0,-56.0,158.0,372.0,-490.0,283.0,358.0,-185.0,-186.0,337.0
38.0,465.0,176.0,-365.0,-30.0,375.0,-22.0,-9.0,204.0,231.0,-464.0,358.0,258.0,-150.0,-177.0,396.0
2.0,1217.0,-651.0,-292.0,-58.0,321.0,-47.0,61.0,235.0,52.0,-365.0,357.0,149.0,-99.0,-157.0,385.0
-35.0,1742.0,-1268.0,-202.0,59.0,121.0,-80.0,136.0,213.0,-101.0,-190.0,284.0,69.0,-72.0,-108.0,317.0
-49.0,1811.0,-1447.0,-103.0,54.0,69.0,-109.0,197.0,142.0,-204.0,38.0,182.0,38.0,-81.0,-42.0,243.0
-38.0,1549.0,-1306.0,2.0,-91.0,181.0,-134.0,253.0,38.0,-263.0,268.0,96.0,33.0,-102.0,2.0,206.0
-20.0,1004.0,-870.0,96.0,-205.0,282.0,-164.0,298.0,-75.0,-292.0,462.0,43.0,35.0,-124.0,26.0,201.0
3.0,294.0,-243.0,155.0,-168.0,250.0,-182.0,309.0,-158.0,-296.0,587.0,20.0,53.0,-156.0,56.0,200.0
34.0,-218.0,231.0,171.0,-57.0,150.0,-175.0,299.0,-201.0,-269.0,610.0,23.0,68.0,-176.0,76.0,195.0
42.0,-285.0,313.0,152.0,-22.0,113.0,-161.0,292.0,-211.0,-238.0,561.0,35.0,57.0,-165.0,66.0,189.0
14.0,-84.0,145.0,126.0,-78.0,157.0,-157.0,279.0,-194.0,-239.0,523.0,35.0,42.0,-149.0,54.0,180.0
-10.0,34.0,38.0,116.0,-127.0,200.0,-155.0,259.0,-175.0,-252.0,523.0,25.0,43.0,-148.0,56.0,170.0
-9.0,-32.0,95.0,118.0,-119.0,193.0,-149.0,247.0,-172.0,-252.0,530.0,18.0,52.0,-151.0,60.0,162.0
2.0,-120.0,175.0,117.0,-81.0,157.0,-137.0,235.0,-168.0,-243.0,521.0,15.0,58.0,-149.0,61.0,155.0
9.0,-110.0,162.0,117.0,-50.0,126.0,-122.0,225.0,-155.0,-235.0,501.0,14.0,59.0,-142.0,61.0,147.0
16.0,-49.0,97.0,126.0,-34.0,111.0,-111.0,224.0,-147.0,-221.0,477.0,12.0,57.0,-131.0,55.0,140.0
27.0,-29.0,70.0,137.0,-32.0,111.0,-106.0,232.0,-152.0,-199.0,457.0,11.0,53.0,-122.0,47.0,138.0
41.0,-65.0,90.0,140.0,-48.0,124.0,-104.0,233.0,-160.0,-177.0,434.0,10.0,47.0,-116.0,43.0,133.0
66.0,-118.0,96.0,135.0,-79.0,136.0,-91.0,212.0,-156.0,-156.0,381.0,8.0,26.0,-105.0,49.0,107.0
107.0,-166.0,57.0,136.0,-111.0,128.0,-54.0,171.0,-138.0,-130.0,278.0,4.0,-22.0,-81.0,70.0,46.0
147.0,-202.0,-8.0,155.0,-135.0,93.0,8.0,127.0,-122.0,-101.0,143.0,5.0,-94.0,-54.0,108.0,-34.0
155.0,-205.0,-82.0,194.0,-169.0,58.0,73.0,100.0,-118.0,-82.0,23.0,18.0,-176.0,-39.0,162.0,-105.0
125.0,-161.0,-175.0,245.0,-222.0,49.0,113.0,95.0,-122.0,-94.0,-44.0,38.0,-249.0,-48.0,225.0,-150.0
74.0,-89.0,-262.0,295.0,-267.0,58.0,116.0,109.0,-124.0,-151.0,-34.0,54.0,-293.0,-79.0,284.0,-167.0
20.0,-35.0,-299.0,327.0,-276.0,58.0,86.0,144.0,-120.0,-240.0,46.0,49.0,-304.0,-116.0,320.0,-166.0
-15.0,-33.0,-271.0,326.0,-268.0,46.0,46.0,182.0,-112.0,-325.0,150.0,19.0,-288.0,-138.0,326.0,-167.0
-2.0,-81.0,-218.0,288.0,-281.0,51.0,23.0,193.0,-97.0,-363.0,208.0,-27.0,-262.0,-131.0,300.0,-186.0
64.0,-156.0,-174.0,231.0,-315.0,83.0,33.0,164.0,-81.0,-328.0,177.0,-66.0,-241.0,-94.0,252.0,-215.0
131.0,-226.0,-136.0,187.0,-338.0,106.0,73.0,114.0,-73.0,-248.0,88.0,-72.0,-234.0,-48.0,208.0,-231.0
143.0,-253.0,-105.0,179.0,-315.0,85.0,118.0,75.0,-80.0,-166.0,-1.0,-37.0,-235.0,-24.0,192.0,-217.0
102.0,-209.0,-113.0,207.0,-249.0,40.0,134.0,62.0,-98.0,-115.0,-52.0,18.0,-235.0,-41.0,207.0,-177.0
47.0,-107.0,-173.0,250.0,-190.0,17.0,112.0,78.0,-111.0,-118.0,-46.0,62.0,-232.0,-86.0,240.0,-136.0
0.0,-3.0,-246.0,281.0,-186.0,33.0,72.0,113.0,-111.0,-179.0,19.0,67.0,-227.0,-130.0,271.0,-117.0
-29.0,29.0,-269.0,284.0,-233.0,60.0,38.0,149.0,-97.0,-268.0,118.0,34.0,-216.0,-150.0,279.0,-126.0
-16.0,-39.0,-220.0,254.0,-276.0,72.0,24.0,158.0,-79.0,-318.0,182.0,-15.0,-198.0,-139.0,261.0,-155.0
47.0,-162.0,-133.0,205.0,-276.0,67.0,35.0,130.0,-68.0,-286.0,159.0,-56.0,-179.0,-107.0,226.0,-191.0
112.0,-250.0,-67.0,159.0,-255.0,57.0,68.0,84.0,-66.0,-197.0,71.0,-69.0,-169.0,-69.0,195.0,-216.0
121.0,-239.0,-62.0,141.0,-245.0,56.0,103.0,46.0,-72.0,-110.0,-19.0,-48.0,-171.0,-46.0,180.0,-211.0
78.0,-150.0,-114.0,164.0,-235.0,59.0,116.0,37.0,-84.0,-68.0,-65.0,0.0,-181.0,-53.0,187.0,-171.0
22.0,-53.0,-176.0,212.0,-204.0,51.0,98.0,59.0,-92.0,-87.0,-52.0,43.0,-189.0,-84.0,209.0,-123.0
-23.0,0.0,-202.0,253.0,-169.0,31.0,64.0,101.0,-91.0,-155.0,17.0,53.0,-191.0,-121.0,234.0,-98.0
-53.0,5.0,-191.0,259.0,-168.0,16.0,36.0,137.0,-80.0,-240.0,115.0,21.0,-185.0,-141.0,247.0,-104.0
-43.0,-29.0,-164.0,228.0,-204.0,29.0,24.0,143.0,-65.0,-285.0,181.0,-32.0,-169.0,-137.0,236.0,-132.0
16.0,-94.0,-129.0,177.0,-237.0,60.0,32.0,113.0,-58.0,-251.0,163.0,-77.0,-151.0,-111.0,207.0,-168.0
79.0,-170.0,-78.0,132.0,-241.0,77.0,57.0,70.0,-61.0,-161.0,80.0,-91.0,-140.0,-76.0,177.0,-195.0
93.0,-205.0,-34.0,112.0,-221.0,63.0,86.0,37.0,-69.0,-75.0,-11.0,-66.0,-139.0,-52.0,165.0,-195.0
59.0,-159.0,-49.0,129.0,-184.0,37.0,100.0,27.0,-75.0,-34.0,-64.0,-13.0,-143.0,-54.0,174.0,-162.0
9.0,-56.0,-120.0,172.0,-145.0,20.0,89.0,42.0,-73.0,-59.0,-55.0,38.0,-149.0,-82.0,195.0,-115.0
-37.0,32.0,-186.0,215.0,-130.0,17.0,62.0,75.0,-65.0,-140.0,20.0,51.0,-154.0,-114.0,216.0,-83.0
-67.0,51.0,-189.0,219.0,-142.0,18.0,36.0,104.0,-54.0,-240.0,134.0,20.0,-150.0,-128.0,219.0,-80.0
-63.0,12.0,-124.0,158.0,-136.0,9.0,18.0,91.0,-43.0,-302.0,236.0,-30.0,-121.0,-117.0,186.0,-86.0
-25.0,-29.0,-31.0,28.0,-70.0,-5.0,1.0,18.0,-36.0,-294.0,294.0,-72.0,-60.0,-85.0,115.0,-77.0
10.0,-26.0,54.0,-131.0,33.0,-15.0,-17.0,-95.0,-27.0,-235.0,318.0,-95.0,22.0,-42.0,21.0,-39.0
16.0,18.0,107.0,-263.0,127.0,-15.0,-29.0,-205.0,-12.0,-166.0,330.0,-96.0,107.0,2.0,-83.0,30.0
5.0,75.0,120.0,-329.0,194.0,-6.0,-42.0,-274.0,1.0,-109.0,337.0,-73.0,178.0,37.0,-183.0,123.0
5.0,112.0,92.0,-317.0,225.0,14.0,-63.0,-283.0,8.0,-72.0,342.0,-45.0,230.0,53.0,-260.0,210.0
