FP2 - F4,F4 - C4,C4 - P4,P4 - O2,FP2 - F8,F8 - T4,T4 - T6,T6 - O2,FP1 - F3,F3 - C3,C3 - P3,P3 - O1,FP1 - F7,F7 - T3,T3 - T5,T5 - O1
,,,,,,,,,,,,,,,
-343.0,379.0,-190.0,-220.0,-720.0,273.0,365.0,-291.0,-182.0,-197.0,333.0,-309.0,-346.0,205.0,633.0,-846.0
-255.0,271.0,77.0,-451.0,-664.0,282.0,282.0,-257.0,15.0,-309.0,383.0,-298.0,-185.0,216.0,355.0,-596.0
-132.0,183.0,217.0,-510.0,-536.0,346.0,92.0,-143.0,132.0,-310.0,405.0,-264.0,-3.0,168.0,359.0,-560.0
2.0,114.0,220.0,-407.0,-397.0,460.0,-145.0,12.0,175.0,-239.0,445.0,-270.0,171.0,89.0,360.0,-508.0
144.0,32.0,144.0,-211.0,-279.0,586.0,-350.0,151.0,171.0,-160.0,512.0,-323.0,300.0,-10.0,111.0,-202.0
291.0,-94.0,61.0,5.0,-182.0,690.0,-469.0,225.0,140.0,-102.0,566.0,-368.0,366.0,-118.0,-288.0,275.0
426.0,-253.0,22.0,173.0,-104.0,749.0,-475.0,199.0,103.0,-88.0,564.0,-331.0,370.0,-192.0,-552.0,622.0
533.0,-406.0,45.0,242.0,-36.0,748.0,-374.0,76.0,86.0,-128.0,499.0,-203.0,326.0,-183.0,-591.0,702.0
474.0,-512.0,113.0,213.0,-78.0,695.0,-242.0,-87.0,-23.0,-189.0,405.0,-50.0,124.0,-88.0,-560.0,667.0
-156.0,-525.0,172.0,131.0,-591.0,629.0,-224.0,-191.0,-626.0,-223.0,343.0,41.0,-617.0,52.0,-587.0,688.0
-1624.0,-435.0,168.0,56.0,-1852.0,588.0,-407.0,-164.0,-1865.0,-230.0,363.0,31.0,-1892.0,71.0,-622.0,743.0
-3634.0,-290.0,92.0,25.0,-3631.0,565.0,-720.0,-20.0,-3050.0,-265.0,466.0,-58.0,-2607.0,-436.0,-585.0,721.0
-5548.0,-143.0,-54.0,58.0,-5360.0,528.0,-1020.0,165.0,-3437.0,-370.0,618.0,-199.0,-1869.0,-1610.0,-388.0,477.0
-6583.0,-28.0,-268.0,163.0,-6287.0,459.0,-1188.0,300.0,-2989.0,-533.0,774.0,-367.0,-314.0,-2777.0,277.0,-302.0
-6134.0,24.0,-507.0,323.0,-5825.0,356.0,-1141.0,315.0,-1902.0,-706.0,871.0,-493.0,1148.0,-3223.0,1660.0,-1816.0
-4396.0,4.0,-706.0,492.0,-4165.0,225.0,-863.0,198.0,-440.0,-836.0,855.0,-492.0,2365.0,-3042.0,3545.0,-3781.0
-2197.0,-47.0,-823.0,612.0,-2097.0,85.0,-458.0,16.0,730.0,-873.0,728.0,-347.0,3114.0,-2645.0,5404.0,-5635.0
-380.0,-76.0,-829.0,632.0,-398.0,-27.0,-95.0,-133.0,1023.0,-793.0,536.0,-135.0,2904.0,-2110.0,6516.0,-6680.0
531.0,-69.0,-716.0,544.0,448.0,-84.0,116.0,-191.0,608.0,-619.0,338.0,42.0,1971.0,-1515.0,6248.0,-6336.0
566.0,-43.0,-518.0,390.0,470.0,-85.0,181.0,-172.0,140.0,-411.0,172.0,144.0,1333.0,-1254.0,4715.0,-4749.0
241.0,-17.0,-297.0,225.0,166.0,-54.0,157.0,-118.0,16.0,-219.0,53.0,168.0,1339.0,-1320.0,2698.0,-2698.0
44.0,-2.0,-108.0,83.0,4.0,-21.0,96.0,-62.0,110.0,-77.0,-12.0,120.0,1230.0,-1102.0,988.0,-975.0
65.0,0.0,6.0,-6.0,54.0,-3.0,38.0,-24.0,131.0,0.0,-29.0,42.0,533.0,-398.0,37.0,-28.0
111.0,-2.0,34.0,-30.0,112.0,0.0,9.0,-8.0,13.0,22.0,-19.0,-6.0,-219.0,227.0,-184.0,185.0
49.0,1.0,14.0,-18.0,47.0,-3.0,8.0,-6.0,-97.0,16.0,-9.0,-3.0,-389.0,295.0,-73.0,75.0
-61.0,5.0,-2.0,-5.0,-70.0,-1.0,15.0,-6.0,-91.0,10.0,-8.0,16.0,-79.0,-4.0,-1.0,11.0
-98.0,6.0,5.0,-8.0,-108.0,2.0,12.0,-2.0,-14.0,9.0,-10.0,17.0,173.0,-184.0,-45.0,59.0
-42.0,1.0,16.0,-13.0,-48.0,4.0,2.0,3.0,40.0,8.0,-7.0,1.0,118.0,-83.0,-91.0,99.0
29.0,-4.0,14.0,-9.0,25.0,4.0,-2.0,3.0,37.0,3.0,0.0,-9.0,-48.0,81.0,-56.0,55.0
45.0,-4.0,1.0,1.0,42.0,-1.0,4.0,-1.0,4.0,-2.0,3.0,-4.0,-95.0,100.0,25.0,-29.0
11.0,-2.0,-7.0,6.0,7.0,-9.0,13.0,-3.0,-26.0,-4.0,2.0,7.0,-31.0,9.0,72.0,-71.0
-26.0,-3.0,-2.0,3.0,-28.0,-18.0,16.0,1.0,-34.0,1.0,-3.0,10.0,24.0,-55.0,49.0,-45.0
-25.0,-3.0,-2.0,5.0,-26.0,-19.0,9.0,11.0,-4.0,5.0,-6.0,1.0,39.0,-44.0,-12.0,12.0
29.0,9.0,-50.0,38.0,16.0,4.0,-22.0,28.0,80.0,-13.0,0.0,-24.0,46.0,5.0,-48.0,39.0
118.0,40.0,-169.0,113.0,69.0,58.0,-84.0,60.0,208.0,-78.0,25.0,-68.0,35.0,76.0,-27.0,4.0
202.0,73.0,-321.0,215.0,90.0,132.0,-160.0,105.0,344.0,-193.0,77.0,-124.0,-25.0,178.0,15.0,-64.0
260.0,83.0,-459.0,318.0,73.0,204.0,-220.0,145.0,478.0,-340.0,151.0,-178.0,-91.0,300.0,3.0,-101.0
307.0,63.0,-560.0,410.0,42.0,255.0,-236.0,158.0,614.0,-484.0,228.0,-211.0,-100.0,407.0,-95.0,-65.0
355.0,11.0,-619.0,478.0,17.0,265.0,-187.0,129.0,703.0,-588.0,281.0,-202.0,-92.0,502.0,-237.0,23.0
390.0,-67.0,-632.0,509.0,-13.0,232.0,-87.0,68.0,661.0,-618.0,286.0,-141.0,-175.0,606.0,-353.0,110.0
391.0,-141.0,-622.0,512.0,-63.0,180.0,20.0,3.0,487.0,-573.0,239.0,-54.0,-350.0,695.0,-410.0,165.0
359.0,-170.0,-626.0,507.0,-117.0,147.0,71.0,-30.0,319.0,-486.0,169.0,1.0,-456.0,685.0,-420.0,194.0
329.0,-134.0,-648.0,502.0,-133.0,156.0,35.0,-9.0,298.0,-412.0,117.0,-10.0,-377.0,565.0,-403.0,207.0
337.0,-68.0,-658.0,492.0,-90.0,196.0,-56.0,52.0,413.0,-393.0,112.0,-67.0,-216.0,454.0,-367.0,195.0
375.0,-14.0,-638.0,473.0,-13.0,242.0,-146.0,113.0,551.0,-434.0,157.0,-132.0,-149.0,461.0,-300.0,131.0
400.0,13.0,-618.0,461.0,42.0,267.0,-192.0,139.0,632.0,-514.0,229.0,-183.0,-202.0,553.0,-213.0,27.0
385.0,2.0,-620.0,471.0,29.0,260.0,-168.0,117.0,644.0,-591.0,288.0,-196.0,-264.0,619.0,-176.0,-35.0
350.0,-55.0,-632.0,497.0,-42.0,223.0,-81.0,60.0,596.0,-622.0,293.0,-151.0,-265.0,616.0,-256.0,21.0
333.0,-133.0,-634.0,519.0,-113.0,178.0,20.0,-1.0,504.0,-582.0,236.0,-66.0,-255.0,593.0,-406.0,160.0
345.0,-171.0,-636.0,523.0,-127.0,151.0,67.0,-29.0,407.0,-495.0,155.0,-1.0,-294.0,589.0,-488.0,259.0
362.0,-137.0,-648.0,514.0,-88.0,161.0,24.0,-7.0,362.0,-420.0,105.0,-4.0,-352.0,587.0,-428.0,236.0
363.0,-67.0,-657.0,499.0,-42.0,200.0,-73.0,53.0,396.0,-405.0,108.0,-58.0,-352.0,561.0,-304.0,136.0
354.0,-9.0,-645.0,482.0,-12.0,246.0,-164.0,112.0,498.0,-452.0,157.0,-124.0,-264.0,516.0,-226.0,53.0
360.0,15.0,-626.0,469.0,12.0,276.0,-205.0,136.0,626.0,-532.0,228.0,-172.0,-150.0,492.0,-215.0,24.0
381.0,-1.0,-621.0,471.0,24.0,273.0,-177.0,111.0,695.0,-605.0,288.0,-180.0,-128.0,534.0,-244.0,37.0
395.0,-62.0,-625.0,487.0,-6.0,236.0,-87.0,52.0,636.0,-631.0,301.0,-132.0,-234.0,628.0,-304.0,83.0
385.0,-142.0,-626.0,507.0,-74.0,186.0,18.0,-8.0,476.0,-586.0,252.0,-49.0,-367.0,689.0,-387.0,157.0
359.0,-184.0,-630.0,516.0,-127.0,153.0,71.0,-36.0,342.0,-494.0,175.0,9.0,-394.0,646.0,-446.0,225.0
347.0,-157.0,-642.0,514.0,-119.0,158.0,34.0,-11.0,334.0,-417.0,118.0,0.0,-310.0,537.0,-429.0,237.0
363.0,-95.0,-648.0,504.0,-62.0,194.0,-61.0,54.0,425.0,-401.0,113.0,-58.0,-231.0,477.0,-350.0,183.0
389.0,-41.0,-635.0,490.0,-1.0,239.0,-154.0,119.0,532.0,-448.0,157.0,-125.0,-222.0,508.0,-261.0,90.0
400.0,-14.0,-619.0,481.0,30.0,268.0,-200.0,148.0,615.0,-527.0,224.0,-174.0,-230.0,563.0,-205.0,10.0
390.0,-23.0,-615.0,486.0,17.0,267.0,-174.0,128.0,650.0,-596.0,279.0,-183.0,-217.0,586.0,-215.0,-3.0
376.0,-76.0,-615.0,502.0,-35.0,237.0,-87.0,73.0,605.0,-614.0,285.0,-135.0,-225.0,598.0,-302.0,70.0
361.0,-142.0,-605.0,510.0,-95.0,194.0,13.0,12.0,469.0,-562.0,237.0,-50.0,-297.0,620.0,-421.0,192.0
321.0,-137.0,-587.0,481.0,-130.0,167.0,53.0,-13.0,289.0,-463.0,184.0,7.0,-390.0,606.0,-492.0,293.0
238.0,-12.0,-551.0,395.0,-114.0,179.0,-28.0,33.0,127.0,-360.0,185.0,-12.0,-423.0,511.0,-479.0,330.0
138.0,193.0,-484.0,262.0,-38.0,229.0,-234.0,153.0,20.0,-285.0,253.0,-103.0,-378.0,374.0,-419.0,307.0
66.0,406.0,-395.0,125.0,96.0,296.0,-505.0,315.0,-11.0,-248.0,363.0,-246.0,-290.0,260.0,-364.0,252.0
66.0,560.0,-323.0,34.0,276.0,359.0,-766.0,469.0,35.0,-259.0,491.0,-424.0,-191.0,183.0,-332.0,183.0
172.0,584.0,-280.0,14.0,454.0,410.0,-944.0,570.0,132.0,-315.0,605.0,-590.0,-98.0,135.0,-334.0,129.0
373.0,444.0,-249.0,53.0,569.0,449.0,-987.0,590.0,232.0,-397.0,669.0,-678.0,-19.0,102.0,-376.0,120.0
599.0,206.0,-213.0,109.0,599.0,475.0,-904.0,530.0,171.0,-467.0,675.0,-671.0,-81.0,72.0,-438.0,155.0
759.0,12.0,-197.0,146.0,585.0,485.0,-774.0,424.0,-439.0,-480.0,621.0,-619.0,-683.0,58.0,-485.0,193.0
801.0,-31.0,-225.0,147.0,581.0,474.0,-685.0,324.0,-1823.0,-438.0,512.0,-573.0,-2101.0,94.0,-510.0,195.0
743.0,59.0,-276.0,127.0,598.0,444.0,-654.0,264.0,-3535.0,-404.0,369.0,-544.0,-3927.0,202.0,-546.0,156.0
633.0,206.0,-333.0,114.0,629.0,400.0,-651.0,243.0,-4688.0,-429.0,222.0,-539.0,-5273.0,356.0,-480.0,-38.0
523.0,343.0,-395.0,132.0,653.0,351.0,-632.0,231.0,-4677.0,-536.0,110.0,-564.0,-5503.0,492.0,109.0,-765.0
460.0,401.0,-443.0,172.0,627.0,309.0,-556.0,209.0,-3523.0,-725.0,67.0,-577.0,-4573.0,549.0,1519.0,-2253.0
468.0,343.0,-442.0,214.0,524.0,283.0,-401.0,177.0,-1659.0,-944.0,95.0,-514.0,-2857.0,525.0,3478.0,-4170.0
516.0,222.0,-409.0,254.0,374.0,265.0,-209.0,153.0,217.0,-1086.0,155.0,-388.0,-1019.0,457.0,5388.0,-5926.0
520.0,156.0,-408.0,312.0,216.0,265.0,-60.0,160.0,1327.0,-1043.0,202.0,-299.0,175.0,368.0,6510.0,-6867.0
427.0,193.0,-457.0,395.0,61.0,304.0,-12.0,206.0,1391.0,-818.0,212.0,-309.0,438.0,270.0,6221.0,-6452.0
264.0,269.0,-490.0,469.0,-78.0,379.0,-66.0,275.0,900.0,-526.0,194.0,-365.0,199.0,174.0,4628.0,-4798.0
70.0,322.0,-458.0,492.0,-182.0,467.0,-187.0,328.0,542.0,-290.0,180.0,-409.0,80.0,89.0,2484.0,-2629.0
-127.0,351.0,-369.0,451.0,-237.0,550.0,-334.0,328.0,544.0,-171.0,193.0,-425.0,262.0,14.0,596.0,-732.0
-255.0,336.0,-239.0,349.0,-226.0,609.0,-449.0,257.0,671.0,-193.0,229.0,-380.0,466.0,-47.0,-507.0,414.0
-226.0,234.0,-76.0,205.0,-142.0,620.0,-470.0,130.0,675.0,-333.0,264.0,-223.0,434.0,-89.0,-799.0,836.0
-158.0,62.0,68.0,78.0,-138.0,579.0,-382.0,-9.0,570.0,-502.0,284.0,7.0,235.0,-108.0,-707.0,940.0
-416.0,-74.0,94.0,52.0,-513.0,509.0,-241.0,-99.0,509.0,-586.0,297.0,168.0,93.0,-81.0,-658.0,1034.0
-967.0,-97.0,-36.0,154.0,-1158.0,438.0,-126.0,-99.0,538.0,-554.0,317.0,177.0,203.0,-99.0,-733.0,1106.0
-1303.0,-36.0,-228.0,303.0,-1541.0,400.0,-96.0,-27.0,577.0,-478.0,342.0,96.0,854.0,-546.0,-784.0,1013.0
-1262.0,77.0,-398.0,416.0,-1473.0,411.0,-180.0,75.0,574.0,-425.0,366.0,-17.0,2231.0,-1732.0,-716.0,715.0
-974.0,240.0,-550.0,492.0,-1073.0,460.0,-344.0,166.0,579.0,-419.0,388.0,-173.0,4094.0,-3463.0,-460.0,204.0
-379.0,391.0,-687.0,562.0,-368.0,521.0,-482.0,217.0,657.0,-475.0,399.0,-334.0,5920.0,-5234.0,285.0,-724.0
418.0,430.0,-778.0,635.0,408.0,556.0,-479.0,221.0,800.0,-591.0,386.0,-407.0,6982.0,-6335.0,1777.0,-2236.0
982.0,344.0,-813.0,705.0,796.0,535.0,-318.0,206.0,938.0,-719.0,356.0,-353.0,6638.0,-6107.0,3666.0,-3974.0
1040.0,229.0,-820.0,751.0,636.0,462.0,-100.0,202.0,994.0,-805.0,341.0,-229.0,5008.0,-4625.0,5125.0,-5208.0
762.0,163.0,-795.0,735.0,207.0,386.0,52.0,219.0,910.0,-830.0,367.0,-95.0,2859.0,-2609.0,5507.0,-5404.0
476.0,122.0,-686.0,629.0,-133.0,355.0,79.0,240.0,672.0,-804.0,421.0,49.0,977.0,-844.0,4683.0,-4477.0
288.0,77.0,-482.0,443.0,-270.0,371.0,-12.0,237.0,340.0,-731.0,483.0,175.0,-106.0,136.0,2963.0,-2727.0
112.0,36.0,-248.0,250.0,-293.0,396.0,-153.0,200.0,35.0,-615.0,543.0,211.0,-334.0,298.0,1030.0,-821.0
-50.0,-18.0,-58.0,138.0,-288.0,400.0,-239.0,139.0,-154.0,-482.0,589.0,148.0,-153.0,89.0,-265.0,431.0
-74.0,-116.0,83.0,113.0,-236.0,382.0,-208.0,69.0,-244.0,-363.0,603.0,71.0,-60.0,-37.0,-561.0,727.0
85.0,-234.0,188.0,117.0,-103.0,356.0,-107.0,10.0,-298.0,-269.0,578.0,41.0,-168.0,1.0,-300.0,520.0
304.0,-291.0,225.0,128.0,67.0,349.0,-55.0,5.0,-295.0,-188.0,525.0,20.0,-234.0,23.0,-148.0,420.0
437.0,-245.0,166.0,172.0,177.0,389.0,-121.0,85.0,-155.0,-125.0,456.0,-41.0,-57.0,-79.0,-315.0,586.0
448.0,-149.0,48.0,245.0,183.0,471.0,-281.0,218.0,109.0,-112.0,390.0,-119.0,255.0,-204.0,-550.0,768.0
383.0,-64.0,-74.0,322.0,132.0,572.0,-479.0,343.0,390.0,-155.0,333.0,-186.0,462.0,-201.0,-619.0,741.0
300.0,-9.0,-171.0,386.0,95.0,667.0,-666.0,410.0,601.0,-230.0,279.0,-255.0,471.0,-57.0,-583.0,566.0
255.0,-3.0,-226.0,416.0,106.0,731.0,-776.0,380.0,723.0,-315.0,226.0,-319.0,369.0,113.0,-501.0,334.0
291.0,-60.0,-230.0,402.0,159.0,735.0,-745.0,255.0,783.0,-388.0,180.0,-339.0,282.0,213.0,-142.0,-118.0
407.0,-153.0,-207.0,366.0,230.0,674.0,-589.0,98.0,813.0,-412.0,130.0,-298.0,258.0,227.0,504.0,-756.0
535.0,-224.0,-200.0,332.0,266.0,592.0,-394.0,-21.0,823.0,-375.0,72.0,-209.0,275.0,192.0,1038.0,-1195.0
603.0,-249.0,-214.0,291.0,213.0,540.0,-245.0,-77.0,799.0,-314.0,29.0,-91.0,286.0,161.0,1290.0,-1314.0
598.0,-254.0,-217.0,214.0,78.0,532.0,-164.0,-107.0,726.0,-280.0,22.0,46.0,254.0,173.0,1258.0,-1170.0
549.0,-259.0,-192.0,96.0,-64.0,545.0,-132.0,-156.0,632.0,-281.0,54.0,172.0,207.0,234.0,805.0,-669.0
479.0,-259.0,-165.0,-16.0,-141.0,535.0,-109.0,-245.0,562.0,-294.0,110.0,240.0,197.0,316.0,75.0,30.0
391.0,-250.0,-167.0,-64.0,-146.0,452.0,-33.0,-364.0,514.0,-298.0,163.0,230.0,216.0,383.0,-471.0,481.0
282.0,-248.0,-191.0,-34.0,-120.0,279.0,132.0,-482.0,443.0,-294.0,188.0,176.0,191.0,431.0,-617.0,508.0
187.0,-258.0,-207.0,33.0,-90.0,74.0,321.0,-550.0,340.0,-287.0,188.0,126.0,95.0,468.0,-564.0,367.0
179.0,-264.0,-204.0,86.0,-14.0,-38.0,359.0,-510.0,275.0,-277.0,196.0,99.0,17.0,479.0,-567.0,364.0
295.0,-251.0,-193.0,101.0,141.0,21.0,138.0,-348.0,311.0,-269.0,245.0,80.0,54.0,444.0,-656.0,525.0
471.0,-226.0,-179.0,80.0,330.0,201.0,-253.0,-132.0,420.0,-270.0,328.0,56.0,179.0,391.0,-705.0,670.0
621.0,-201.0,-182.0,50.0,490.0,394.0,-641.0,44.0,537.0,-276.0,412.0,18.0,287.0,367.0,-632.0,668.0
712.0,-187.0,-229.0,55.0,604.0,515.0,-883.0,113.0,632.0,-279.0,462.0,-29.0,317.0,397.0,-499.0,570.0
744.0,-197.0,-317.0,110.0,657.0,507.0,-874.0,51.0,690.0,-286.0,450.0,-63.0,267.0,474.0,-336.0,387.0
716.0,-231.0,-403.0,194.0,627.0,367.0,-600.0,-117.0,680.0,-295.0,369.0,-48.0,167.0,561.0,195.0,-217.0
629.0,-258.0,-452.0,274.0,518.0,174.0,-206.0,-294.0,591.0,-279.0,242.0,15.0,65.0,599.0,1344.0,-1440.0
508.0,-245.0,-448.0,326.0,359.0,58.0,84.0,-360.0,457.0,-219.0,145.0,64.0,14.0,544.0,2592.0,-2703.0
400.0,-200.0,-391.0,346.0,179.0,98.0,148.0,-270.0,321.0,-138.0,145.0,43.0,34.0,406.0,3246.0,-3315.0
341.0,-167.0,-292.0,336.0,5.0,259.0,41.0,-88.0,196.0,-82.0,237.0,-25.0,87.0,239.0,3158.0,-3159.0
340.0,-186.0,-166.0,294.0,-124.0,460.0,-135.0,83.0,89.0,-73.0,366.0,-101.0,148.0,77.0,2338.0,-2283.0
384.0,-259.0,-34.0,233.0,-174.0,639.0,-309.0,169.0,22.0,-95.0,476.0,-167.0,226.0,-70.0,935.0,-855.0
450.0,-361.0,76.0,183.0,-135.0,746.0,-405.0,140.0,8.0,-128.0,519.0,-187.0,288.0,-156.0,-379.0,459.0
516.0,-459.0,152.0,158.0,-25.0,742.0,-367.0,17.0,45.0,-157.0,467.0,-128.0,282.0,-129.0,-922.0,996.0
440.0,-506.0,199.0,142.0,9.0,643.0,-247.0,-131.0,-13.0,-168.0,355.0,-27.0,75.0,-8.0,-750.0,830.0
-178.0,-460.0,188.0,128.0,-447.0,527.0,-201.0,-202.0,-436.0,-177.0,283.0,20.0,-541.0,136.0,-468.0,563.0
-1468.0,-335.0,96.0,132.0,-1564.0,457.0,-333.0,-135.0,-1082.0,-228.0,332.0,-37.0,-1251.0,132.0,-485.0,589.0
-2741.0,-200.0,-54.0,165.0,-2702.0,427.0,-585.0,31.0,-1417.0,-353.0,486.0,-155.0,-1244.0,-276.0,-696.0,777.0
-3247.0,-103.0,-232.0,226.0,-3121.0,398.0,-836.0,204.0,-1293.0,-527.0,670.0,-274.0,-515.0,-920.0,-664.0,675.0
-2928.0,-47.0,-424.0,313.0,-2743.0,343.0,-994.0,309.0,-868.0,-693.0,813.0,-370.0,226.0,-1242.0,90.0,-193.0
-1940.0,-31.0,-603.0,417.0,-1739.0,252.0,-971.0,300.0,-170.0,-807.0,862.0,-412.0,944.0,-1250.0,1651.0,-1872.0
-522.0,-47.0,-743.0,521.0,-369.0,125.0,-725.0,178.0,576.0,-849.0,792.0,-353.0,2011.0,-1554.0,3578.0,-3868.0
661.0,-60.0,-839.0,602.0,719.0,-16.0,-342.0,3.0,921.0,-803.0,625.0,-197.0,3140.0,-2320.0,5342.0,-5617.0
994.0,-40.0,-867.0,628.0,966.0,-126.0,7.0,-132.0,735.0,-670.0,420.0,-20.0,3675.0,-3022.0,6393.0,-6580.0
623.0,0.0,-786.0,575.0,550.0,-168.0,201.0,-172.0,347.0,-484.0,236.0,102.0,3595.0,-3306.0,6187.0,-6274.0
195.0,33.0,-603.0,452.0,112.0,-146.0,250.0,-140.0,113.0,-297.0,99.0,158.0,3319.0,-3233.0,4763.0,-4775.0
88.0,36.0,-366.0,286.0,14.0,-93.0,212.0,-88.0,82.0,-145.0,8.0,162.0,2730.0,-2647.0,2775.0,-2751.0
159.0,14.0,-137.0,114.0,106.0,-41.0,132.0,-48.0,87.0,-42.0,-36.0,119.0,1527.0,-1425.0,1002.0,-976.0
136.0,-9.0,12.0,-9.0,111.0,-13.0,55.0,-24.0,24.0,15.0,-41.0,52.0,197.0,-155.0,-13.0,22.0
-10.0,-8.0,49.0,-46.0,-12.0,-7.0,13.0,-10.0,-55.0,34.0,-28.0,8.0,-426.0,388.0,-231.0,228.0
-115.0,10.0,20.0,-25.0,-105.0,-9.0,5.0,-2.0,-74.0,31.0,-20.0,2.0,-242.0,185.0,-73.0,69.0
-92.0,20.0,-3.0,-3.0,-76.0,-12.0,11.0,-1.0,-37.0,25.0,-20.0,11.0,116.0,-135.0,29.0,-30.0
-12.0,13.0,5.0,-4.0,9.0,-18.0,14.0,-3.0,2.0,21.0,-21.0,11.0,146.0,-130.0,-33.0,29.0
32.0,-1.0,21.0,-14.0,53.0,-26.0,15.0,-4.0,13.0,16.0,-16.0,0.0,-50.0,74.0,-114.0,103.0
23.0,-11.0,22.0,-12.0,38.0,-30.0,19.0,-3.0,5.0,8.0,-11.0,-5.0,-140.0,152.0,-91.0,77.0
-2.0,-14.0,11.0,1.0,2.0,-29.0,23.0,-1.0,-10.0,3.0,-11.0,4.0,-48.0,43.0,10.0,-18.0
-20.0,-11.0,1.0,9.0,-23.0,-22.0,22.0,1.0,-24.0,4.0,-14.0,17.0,56.0,-74.0,86.0,-84.0
-24.0,-5.0,-1.0,7.0,-25.0,-13.0,14.0,2.0,-23.0,7.0,-14.0,20.0,61.0,-76.0,71.0,-66.0
0.0,3.0,-9.0,6.0,-1.0,0.0,-1.0,3.0,10.0,1.0,-5.0,5.0,19.0,-8.0,-7.0,7.0
59.0,16.0,-59.0,36.0,37.0,30.0,-33.0,17.0,88.0,-37.0,18.0,-29.0,-3.0,55.0,-64.0,53.0
130.0,33.0,-170.0,112.0,56.0,85.0,-88.0,52.0,206.0,-122.0,60.0,-79.0,-23.0,119.0,-47.0,17.0
184.0,43.0,-309.0,219.0,35.0,154.0,-152.0,100.0,342.0,-248.0,122.0,-130.0,-67.0,217.0,5.0,-70.0
237.0,36.0,-439.0,328.0,4.0,218.0,-193.0,133.0,484.0,-392.0,194.0,-170.0,-103.0,340.0,-3.0,-117.0
316.0,9.0,-548.0,423.0,-2.0,259.0,-188.0,129.0,616.0,-523.0,258.0,-188.0,-112.0,457.0,-117.0,-65.0
398.0,-45.0,-618.0,491.0,3.0,262.0,-128.0,89.0,669.0,-604.0,287.0,-170.0,-155.0,568.0,-286.0,55.0
421.0,-121.0,-637.0,521.0,-35.0,225.0,-31.0,25.0,579.0,-601.0,262.0,-104.0,-282.0,670.0,-416.0,163.0
369.0,-191.0,-625.0,521.0,-130.0,176.0,61.0,-33.0,385.0,-520.0,185.0,-15.0,-430.0,717.0,-464.0,213.0
307.0,-215.0,-620.0,511.0,-210.0,156.0,90.0,-53.0,239.0,-415.0,102.0,44.0,-464.0,661.0,-450.0,223.0
311.0,-183.0,-625.0,500.0,-197.0,181.0,33.0,-15.0,245.0,-355.0,64.0,34.0,-366.0,553.0,-426.0,226.0
371.0,-128.0,-614.0,479.0,-109.0,229.0,-67.0,54.0,359.0,-367.0,87.0,-27.0,-275.0,515.0,-413.0,225.0
411.0,-79.0,-589.0,454.0,-30.0,269.0,-149.0,108.0,481.0,-435.0,156.0,-100.0,-281.0,581.0,-370.0,173.0
391.0,-46.0,-583.0,447.0,-14.0,278.0,-173.0,118.0,563.0,-524.0,239.0,-157.0,-318.0,651.0,-279.0,67.0
348.0,-47.0,-602.0,467.0,-46.0,254.0,-129.0,87.0,588.0,-593.0,292.0,-166.0,-298.0,646.0,-225.0,-2.0
339.0,-97.0,-618.0,495.0,-87.0,209.0,-33.0,30.0,533.0,-597.0,277.0,-110.0,-258.0,603.0,-305.0,64.0
363.0,-170.0,-615.0,507.0,-120.0,169.0,63.0,-27.0,405.0,-524.0,199.0,-19.0,-297.0,604.0,-475.0,228.0
376.0,-207.0,-608.0,500.0,-144.0,159.0,96.0,-50.0,278.0,-422.0,110.0,39.0,-405.0,644.0,-569.0,336.0
356.0,-180.0,-611.0,487.0,-155.0,185.0,39.0,-16.0,245.0,-361.0,67.0,28.0,-466.0,652.0,-498.0,291.0
332.0,-119.0,-610.0,474.0,-140.0,230.0,-63.0,51.0,319.0,-372.0,84.0,-30.0,-410.0,602.0,-350.0,160.0
340.0,-65.0,-599.0,464.0,-89.0,270.0,-140.0,99.0,454.0,-437.0,143.0,-96.0,-281.0,544.0,-260.0,62.0
377.0,-36.0,-598.0,463.0,-22.0,285.0,-159.0,101.0,582.0,-522.0,215.0,-146.0,-191.0,536.0,-256.0,40.0
399.0,-47.0,-610.0,476.0,2.0,266.0,-114.0,63.0,625.0,-583.0,264.0,-154.0,-213.0,593.0,-303.0,74.0
379.0,-102.0,-618.0,494.0,-52.0,219.0,-21.0,6.0,537.0,-583.0,255.0,-101.0,-320.0,664.0,-370.0,135.0
338.0,-174.0,-614.0,503.0,-147.0,173.0,71.0,-44.0,370.0,-509.0,188.0,-12.0,-410.0,678.0,-441.0,209.0
319.0,-208.0,-611.0,499.0,-201.0,158.0,102.0,-58.0,248.0,-410.0,106.0,48.0,-413.0,621.0,-483.0,268.0
337.0,-179.0,-611.0,486.0,-174.0,183.0,42.0,-18.0,253.0,-355.0,68.0,36.0,-362.0,556.0,-467.0,274.0
362.0,-119.0,-602.0,468.0,-110.0,230.0,-64.0,54.0,348.0,-372.0,92.0,-30.0,-332.0,555.0,-405.0,219.0
367.0,-66.0,-589.0,456.0,-63.0,271.0,-148.0,108.0,464.0,-444.0,159.0,-104.0,-325.0,602.0,-326.0,124.0
358.0,-37.0,-591.0,462.0,-42.0,283.0,-168.0,118.0,562.0,-531.0,234.0,-155.0,-289.0,625.0,-265.0,40.0
353.0,-43.0,-608.0,483.0,-40.0,259.0,-119.0,85.0,603.0,-590.0,277.0,-153.0,-240.0,615.0,-270.0,33.0
355.0,-94.0,-617.0,502.0,-65.0,210.0,-27.0,27.0,538.0,-583.0,257.0,-90.0,-255.0,621.0,-365.0,122.0
345.0,-153.0,-613.0,503.0,-113.0,161.0,56.0,-21.0,378.0,-502.0,184.0,-9.0,-353.0,650.0,-494.0,249.0
305.0,-127.0,-611.0,476.0,-133.0,130.0,57.0,-11.0,204.0,-378.0,128.0,1.0,-440.0,634.0,-563.0,324.0
251.0,32.0,-617.0,420.0,-67.0,123.0,-61.0,92.0,94.0,-273.0,158.0,-105.0,-420.0,518.0,-543.0,319.0
223.0,258.0,-609.0,345.0,73.0,142.0,-259.0,260.0,63.0,-237.0,278.0,-279.0,-304.0,344.0,-494.0,279.0
233.0,445.0,-564.0,254.0,232.0,185.0,-481.0,431.0,80.0,-279.0,452.0,-454.0,-167.0,196.0,-473.0,243.0
280.0,523.0,-474.0,149.0,371.0,249.0,-704.0,561.0,116.0,-368.0,631.0,-590.0,-55.0,116.0,-484.0,211.0
365.0,459.0,-346.0,48.0,472.0,324.0,-891.0,622.0,154.0,-456.0,755.0,-650.0,21.0,105.0,-507.0,183.0
